# Data from http://henke.lbl.gov/optical_constants/filter2.html
# Si3 Density=2.33 Thickness=320. microns
# Photon Energy (eV), Transmission
    10.000      0.00000    
    69.980      0.00000    
    129.96      0.00000    
    189.94      0.00000    
    249.92      0.00000    
    309.90      0.00000    
    369.88      0.00000    
    429.86      0.00000    
    489.84      0.00000    
    549.82      0.00000    
    609.80      0.00000    
    669.78      0.00000    
    729.76      0.00000    
    789.74      0.00000    
    849.72      0.00000    
    909.70      0.00000    
    969.68      0.00000    
    1029.7      0.00000    
    1089.6      0.40973E-40
    1149.6      0.10144E-34
    1209.6      0.26391E-30
    1269.6      0.13027E-26
    1329.6      0.17061E-23
    1389.5      0.76313E-21
    1449.5      0.14214E-18
    1509.5      0.13071E-16
    1569.5      0.71181E-15
    1629.5      0.22709E-13
    1689.4      0.46185E-12
    1749.4      0.65875E-11
    1809.4      0.71929E-10
    1869.4      0.00000    
    1929.4      0.00000    
    1989.3      0.00000    
    2049.3      0.00000    
    2109.3      0.00000    
    2169.3      0.00000    
    2229.3      0.00000    
    2289.2      0.00000    
    2349.2      0.00000    
    2409.2      0.00000    
    2469.2      0.00000    
    2529.2      0.00000    
    2589.1      0.00000    
    2649.1      0.84078E-44
    2709.1      0.26372E-41
    2769.1      0.56940E-39
    2829.1      0.83137E-37
    2889.0      0.85419E-35
    2949.0      0.63489E-33
    3009.0      0.35012E-31
    3069.0      0.14732E-29
    3129.0      0.48295E-28
    3188.9      0.12575E-26
    3248.9      0.26528E-25
    3308.9      0.45995E-24
    3368.9      0.66845E-23
    3428.9      0.82136E-22
    3488.8      0.86629E-21
    3548.8      0.79274E-20
    3608.8      0.63568E-19
    3668.8      0.45182E-18
    3728.8      0.28642E-17
    3788.7      0.16347E-16
    3848.7      0.84639E-16
    3908.7      0.39973E-15
    3968.7      0.17351E-14
    4028.7      0.69552E-14
    4088.6      0.25876E-13
    4148.6      0.89931E-13
    4208.6      0.29270E-12
    4268.6      0.89661E-12
    4328.6      0.25957E-11
    4388.5      0.71231E-11
    4448.5      0.18593E-10
    4508.5      0.46318E-10
    4568.5      0.11038E-09
    4628.5      0.25237E-09
    4688.4      0.55510E-09
    4748.4      0.11766E-08
    4808.4      0.24082E-08
    4868.4      0.47696E-08
    4928.4      0.91618E-08
    4988.3      0.17089E-07
    5048.3      0.31011E-07
    5108.3      0.54856E-07
    5168.3      0.94652E-07
    5228.3      0.15950E-06
    5288.2      0.26287E-06
    5348.2      0.42436E-06
    5408.2      0.67150E-06
    5468.2      0.10427E-05
    5528.2      0.15905E-05
    5588.1      0.23855E-05
    5648.1      0.35201E-05
    5708.1      0.51151E-05
    5768.1      0.73249E-05
    5828.1      0.10344E-04
    5888.0      0.14413E-04
    5948.0      0.19836E-04
    6008.0      0.26972E-04
    6068.0      0.36258E-04
    6128.0      0.48208E-04
    6187.9      0.63423E-04
    6247.9      0.82614E-04
    6307.9      0.10658E-03
    6367.9      0.13628E-03
    6427.9      0.17283E-03
    6487.8      0.21725E-03
    6547.8      0.27090E-03
    6607.8      0.33526E-03
    6667.8      0.41192E-03
    6727.8      0.50263E-03
    6787.7      0.60922E-03
    6847.7      0.73365E-03
    6907.7      0.87809E-03
    6967.7      0.10447E-02
    7027.7      0.12361E-02
    7087.6      0.14545E-02
    7147.6      0.17027E-02
    7207.6      0.19832E-02
    7267.6      0.22988E-02
    7327.6      0.26524E-02
    7387.5      0.30470E-02
    7447.5      0.34852E-02
    7507.5      0.39702E-02
    7567.5      0.45046E-02
    7627.5      0.50916E-02
    7687.4      0.57340E-02
    7747.4      0.64350E-02
    7807.4      0.71970E-02
    7867.4      0.80229E-02
    7927.4      0.89153E-02
    7987.3      0.98773E-02
    8047.3      0.10911E-01
    8107.3      0.12018E-01
    8167.3      0.13202E-01
    8227.3      0.14465E-01
    8287.2      0.15807E-01
    8347.2      0.17232E-01
    8407.2      0.18742E-01
    8467.2      0.20336E-01
    8527.2      0.22018E-01
    8587.1      0.23786E-01
    8647.1      0.25646E-01
    8707.1      0.27594E-01
    8767.1      0.29635E-01
    8827.1      0.31766E-01
    8887.0      0.33988E-01
    8947.0      0.36302E-01
    9007.0      0.38707E-01
    9067.0      0.41206E-01
    9127.0      0.43797E-01
    9186.9      0.46478E-01
    9246.9      0.49249E-01
    9306.9      0.52110E-01
    9366.9      0.55061E-01
    9426.9      0.58099E-01
    9486.8      0.61225E-01
    9546.8      0.64438E-01
    9606.8      0.67734E-01
    9666.8      0.71115E-01
    9726.8      0.74577E-01
    9786.7      0.78119E-01
    9846.7      0.81741E-01
    9906.7      0.85438E-01
    9966.7      0.89210E-01
    10027.      0.93056E-01
    10087.      0.96973E-01
    10147.      0.10096    
    10207.      0.10502    
    10267.      0.10914    
    10327.      0.11332    
    10387.      0.11756    
    10447.      0.12186    
    10507.      0.12622    
    10566.      0.13064    
    10626.      0.13510    
    10686.      0.13962    
    10746.      0.14418    
    10806.      0.14879    
    10866.      0.15345    
    10926.      0.15814    
    10986.      0.16288    
    11046.      0.16765    
    11106.      0.17245    
    11166.      0.17729    
    11226.      0.18216    
    11286.      0.18706    
    11346.      0.19199    
    11406.      0.19694    
    11466.      0.20191    
    11526.      0.20690    
    11586.      0.21191    
    11646.      0.21694    
    11706.      0.22199    
    11766.      0.22705    
    11826.      0.23211    
    11886.      0.23719    
    11946.      0.24228    
    12006.      0.24738    
    12066.      0.25247    
    12126.      0.25758    
    12186.      0.26268    
    12246.      0.26778    
    12306.      0.27289    
    12366.      0.27799    
    12426.      0.28308    
    12486.      0.28818    
    12546.      0.29326    
    12606.      0.29834    
    12666.      0.30341    
    12726.      0.30847    
    12786.      0.31352    
    12846.      0.31856    
    12906.      0.32358    
    12966.      0.32859    
    13026.      0.33359    
    13086.      0.33857    
    13146.      0.34353    
    13206.      0.34847    
    13266.      0.35340    
    13326.      0.35831    
    13386.      0.36319    
    13446.      0.36806    
    13505.      0.37290    
    13565.      0.37773    
    13625.      0.38253    
    13685.      0.38730    
    13745.      0.39206    
    13805.      0.39679    
    13865.      0.40149    
    13925.      0.40617    
    13985.      0.41082    
    14045.      0.41545    
    14105.      0.42005    
    14165.      0.42462    
    14225.      0.42917    
    14285.      0.43369    
    14345.      0.43817    
    14405.      0.44264    
    14465.      0.44707    
    14525.      0.45148    
    14585.      0.45586    
    14645.      0.46020    
    14705.      0.46452    
    14765.      0.46881    
    14825.      0.47307    
    14885.      0.47730    
    14945.      0.48149    
    15005.      0.48566    
    15065.      0.48980    
    15125.      0.49391    
    15185.      0.49800    
    15245.      0.50204    
    15305.      0.50606    
    15365.      0.51005    
    15425.      0.51401    
    15485.      0.51794    
    15545.      0.52183    
    15605.      0.52570    
    15665.      0.52954    
    15725.      0.53335    
    15785.      0.53712    
    15845.      0.54087    
    15905.      0.54459    
    15965.      0.54827    
    16025.      0.55193    
    16085.      0.55555    
    16145.      0.55915    
    16205.      0.56271    
    16265.      0.56625    
    16325.      0.56976    
    16385.      0.57323    
    16445.      0.57668    
    16504.      0.58010    
    16564.      0.58349    
    16624.      0.58685    
    16684.      0.59018    
    16744.      0.59348    
    16804.      0.59676    
    16864.      0.60000    
    16924.      0.60322    
    16984.      0.60641    
    17044.      0.60957    
    17104.      0.61270    
    17164.      0.61581    
    17224.      0.61889    
    17284.      0.62194    
    17344.      0.62497    
    17404.      0.62796    
    17464.      0.63093    
    17524.      0.63388    
    17584.      0.63680    
    17644.      0.63969    
    17704.      0.64255    
    17764.      0.64540    
    17824.      0.64821    
    17884.      0.65100    
    17944.      0.65376    
    18004.      0.65650    
    18064.      0.65922    
    18124.      0.66191    
    18184.      0.66457    
    18244.      0.66721    
    18304.      0.66983    
    18364.      0.67242    
    18424.      0.67499    
    18484.      0.67753    
    18544.      0.68006    
    18604.      0.68256    
    18664.      0.68503    
    18724.      0.68749    
    18784.      0.68992    
    18844.      0.69233    
    18904.      0.69472    
    18964.      0.69708    
    19024.      0.69942    
    19084.      0.70175    
    19144.      0.70404    
    19204.      0.70632    
    19264.      0.70858    
    19324.      0.71082    
    19384.      0.71304    
    19444.      0.71523    
    19504.      0.71741    
    19563.      0.71956    
    19623.      0.72170    
    19683.      0.72382    
    19743.      0.72591    
    19803.      0.72799    
    19863.      0.73005    
    19923.      0.73209    
    19983.      0.73412    
    20043.      0.73612    
    20103.      0.73811    
    20163.      0.74007    
    20223.      0.74202    
    20283.      0.74395    
    20343.      0.74587    
    20403.      0.74776    
    20463.      0.74964    
    20523.      0.75150    
    20583.      0.75334    
    20643.      0.75517    
    20703.      0.75698    
    20763.      0.75877    
    20823.      0.76055    
    20883.      0.76230    
    20943.      0.76405    
    21003.      0.76577    
    21063.      0.76748    
    21123.      0.76918    
    21183.      0.77086    
    21243.      0.77252    
    21303.      0.77417    
    21363.      0.77580    
    21423.      0.77742    
    21483.      0.77902    
    21543.      0.78061    
    21603.      0.78218    
    21663.      0.78374    
    21723.      0.78529    
    21783.      0.78682    
    21843.      0.78833    
    21903.      0.78984    
    21963.      0.79133    
    22023.      0.79280    
    22083.      0.79426    
    22143.      0.79571    
    22203.      0.79715    
    22263.      0.79857    
    22323.      0.79998    
    22383.      0.80138    
    22443.      0.80276    
    22502.      0.80413    
    22562.      0.80549    
    22622.      0.80684    
    22682.      0.80817    
    22742.      0.80949    
    22802.      0.81080    
    22862.      0.81210    
    22922.      0.81339    
    22982.      0.81466    
    23042.      0.81593    
    23102.      0.81718    
    23162.      0.81842    
    23222.      0.81965    
    23282.      0.82087    
    23342.      0.82208    
    23402.      0.82328    
    23462.      0.82446    
    23522.      0.82564    
    23582.      0.82680    
    23642.      0.82796    
    23702.      0.82911    
    23762.      0.83024    
    23822.      0.83137    
    23882.      0.83248    
    23942.      0.83359    
    24002.      0.83468    
    24062.      0.83577    
    24122.      0.83684    
    24182.      0.83791    
    24242.      0.83897    
    24302.      0.84002    
    24362.      0.84105    
    24422.      0.84208    
    24482.      0.84311    
    24542.      0.84412    
    24602.      0.84512    
    24662.      0.84612    
    24722.      0.84710    
    24782.      0.84808    
    24842.      0.84905    
    24902.      0.85001    
    24962.      0.85096    
    25022.      0.85191    
    25082.      0.85284    
    25142.      0.85377    
    25202.      0.85469    
    25262.      0.85560    
    25322.      0.85651    
    25382.      0.85740    
    25442.      0.85829    
    25501.      0.85917    
    25561.      0.86005    
    25621.      0.86091    
    25681.      0.86177    
    25741.      0.86262    
    25801.      0.86347    
    25861.      0.86431    
    25921.      0.86514    
    25981.      0.86596    
    26041.      0.86678    
    26101.      0.86759    
    26161.      0.86839    
    26221.      0.86918    
    26281.      0.86997    
    26341.      0.87076    
    26401.      0.87153    
    26461.      0.87230    
    26521.      0.87307    
    26581.      0.87382    
    26641.      0.87457    
    26701.      0.87532    
    26761.      0.87606    
    26821.      0.87679    
    26881.      0.87751    
    26941.      0.87823    
    27001.      0.87895    
    27061.      0.87966    
    27121.      0.88036    
    27181.      0.88106    
    27241.      0.88175    
    27301.      0.88243    
    27361.      0.88311    
    27421.      0.88379    
    27481.      0.88446    
    27541.      0.88512    
    27601.      0.88578    
    27661.      0.88643    
    27721.      0.88708    
    27781.      0.88772    
    27841.      0.88836    
    27901.      0.88899    
    27961.      0.88962    
    28021.      0.89024    
    28081.      0.89086    
    28141.      0.89147    
    28201.      0.89207    
    28261.      0.89268    
    28321.      0.89327    
    28381.      0.89387    
    28441.      0.89445    
    28500.      0.89504    
    28560.      0.89562    
    28620.      0.89619    
    28680.      0.89676    
    28740.      0.89732    
    28800.      0.89789    
    28860.      0.89844    
    28920.      0.89899    
    28980.      0.89954    
    29040.      0.90008    
    29100.      0.90062    
    29160.      0.90116    
    29220.      0.90169    
    29280.      0.90222    
    29340.      0.90274    
    29400.      0.90326    
    29460.      0.90377    
    29520.      0.90428    
    29580.      0.90479    
    29640.      0.90529    
    29700.      0.90579    
    29760.      0.90628    
    29820.      0.90677    
    29880.      0.90726    
    29940.      0.90774    
    30000.      0.90822    
